Current (mA)	Voltage (V)	Power (mW)
0.00000	0.11292	0.00207
0.05000	0.69583	0.00226
0.10000	1.38931	0.00211
0.15000	1.41802	0.00159
0.20000	1.44042	0.00133
0.25000	1.45818	0.00166
0.30000	1.47414	0.00197
0.35000	1.48827	0.00155
0.40000	1.50079	0.00214
0.45000	1.51252	0.00193
0.50000	1.52304	0.00200
0.55000	1.53322	0.00185
0.60000	1.54246	0.00226
0.65000	1.55149	0.00252
0.70000	1.56001	0.00289
0.75000	1.56790	0.00264
0.80000	1.57572	0.00282
0.85000	1.58310	0.00356
0.90000	1.59017	0.00481
0.95000	1.59666	0.00761
1.00000	1.60274	0.01645
1.05000	1.60795	0.03272
1.10000	1.61271	0.05242
1.15000	1.61743	0.07261
1.20000	1.62198	0.09215
1.25000	1.62675	0.11298
1.30000	1.63119	0.13302
1.35000	1.63585	0.15354
1.40000	1.64040	0.17361
1.45000	1.64481	0.19365
1.50000	1.64935	0.21331
1.55000	1.65368	0.23239
1.60000	1.65822	0.25182
1.65000	1.66245	0.27070
1.70000	1.66695	0.28980
1.75000	1.67134	0.30917
1.80000	1.67552	0.32719
1.85000	1.67997	0.34614
1.90000	1.68402	0.36412
1.95000	1.68836	0.38203
2.00000	1.69245	0.40015
2.05000	1.69666	0.41798
2.10000	1.70091	0.43601
2.15000	1.70493	0.45380
2.20000	1.70918	0.47048
2.25000	1.71313	0.48771
2.30000	1.71729	0.50491
2.35000	1.72117	0.52139
2.40000	1.72528	0.53896
2.45000	1.72933	0.55488
2.50000	1.73323	0.57115
2.55000	1.73717	0.58891
2.60000	1.74095	0.60442
2.65000	1.74485	0.62214
2.70000	1.74873	0.64043
2.75000	1.75248	0.65792
2.80000	1.75632	0.67665
2.85000	1.76003	0.69347
2.90000	1.76380	0.71101
2.95000	1.76747	0.72951
3.00000	1.77117	0.74689
3.05000	1.77483	0.76558
3.10000	1.77844	0.78334
3.15000	1.78215	0.80176
3.20000	1.78572	0.81900
3.25000	1.78941	0.83781
3.30000	1.79292	0.85429
3.35000	1.79651	0.87268
3.40000	1.80008	0.89017
3.45000	1.80356	0.90700
3.50000	1.80717	0.92420
3.55000	1.81062	0.94162
3.60000	1.81415	0.95743
3.65000	1.81746	0.97474
3.70000	1.82105	0.99044
3.75000	1.82455	1.00768
3.80000	1.82802	1.02375
3.85000	1.83135	1.03949
3.90000	1.83476	1.05452
3.95000	1.83819	1.07037
4.00000	1.84150	1.08596
4.05000	1.84490	1.10196
4.10000	1.84831	1.11777
4.15000	1.85153	1.13276
4.20000	1.85498	1.14842
4.25000	1.85816	1.16274
4.30000	1.86146	1.17815
4.35000	1.86467	1.19179
4.40000	1.86798	1.20696
4.45000	1.87127	1.22192
4.50000	1.87449	1.23481
4.55000	1.87769	1.24959
4.60000	1.88075	1.26320
4.65000	1.88407	1.27650
4.70000	1.88719	1.29067
4.75000	1.89031	1.30334
4.80000	1.89358	1.31612
4.85000	1.89658	1.33000
4.90000	1.89974	1.34219
4.95000	1.90283	1.35344
5.00000	1.90586	1.36768
5.05000	1.90899	1.37867
5.10000	1.91198	1.39060
5.15000	1.91519	1.40323
5.20000	1.91807	1.41303
5.25000	1.92116	1.42511
5.30000	1.92414	1.43691
5.35000	1.92718	1.44667
5.40000	1.93013	1.45856
5.45000	1.93308	1.46943
5.50000	1.93598	1.47834
5.55000	1.93887	1.48891
5.60000	1.94178	1.49834
5.65000	1.94475	1.50726
5.70000	1.94766	1.51736
5.75000	1.95064	1.52694
5.80000	1.95337	1.53471
5.85000	1.95626	1.54421
5.90000	1.95908	1.55235
5.95000	1.96194	1.56005
6.00000	1.96468	1.56817
6.05000	1.96754	1.57621
6.10000	1.97032	1.58312
6.15000	1.97316	1.58993
6.20000	1.97592	1.59617
6.25000	1.97857	1.60143
6.30000	1.98130	1.60776
6.35000	1.98404	1.61325
6.40000	1.98679	1.61823
6.45000	1.98945	1.62376
6.50000	1.99210	1.62948
6.55000	1.99481	1.63322
6.60000	1.99745	1.63823
6.65000	2.00013	1.64256
6.70000	2.00271	1.64664
6.75000	2.00533	1.65145
6.80000	2.00798	1.65542
6.85000	2.01055	1.65792
6.90000	2.01313	1.66249
6.95000	2.01570	1.66462
7.00000	2.01834	1.66738
7.05000	2.02082	1.67086
7.10000	2.02344	1.67198
7.15000	2.02597	1.67485
7.20000	2.02852	1.67688
7.25000	2.03097	1.67729
7.30000	2.03347	1.67931
7.35000	2.03599	1.68054
7.40000	2.03839	1.68024
7.45000	2.04099	1.68166
7.50000	2.04340	1.68151
7.55000	2.04586	1.68088
7.60000	2.04827	1.68155
7.65000	2.05069	1.68024
7.70000	2.05319	1.67844
7.75000	2.05554	1.67890
7.80000	2.05788	1.67635
7.85000	2.06032	1.67483
7.90000	2.06268	1.67251
7.95000	2.06505	1.66940
8.00000	2.06738	1.66723
8.05000	2.06970	1.66416
8.10000	2.07207	1.66084
8.15000	2.07430	1.65721
8.20000	2.07664	1.65341
8.25000	2.07884	1.64932
8.30000	2.08123	1.64439
8.35000	2.08344	1.63965
8.40000	2.08577	1.63489
8.45000	2.08804	1.62892
8.50000	2.09020	1.62435
8.55000	2.09252	1.61796
8.60000	2.09463	1.61131
8.65000	2.09697	1.60498
8.70000	2.09899	1.59800
8.75000	2.10121	1.59011
8.80000	2.10354	1.58368
8.85000	2.10560	1.57444
8.90000	2.10779	1.56634
8.95000	2.10997	1.55853
9.00000	2.11207	1.54903
9.05000	2.11408	1.54054
9.10000	2.11620	1.53139
9.15000	2.11844	1.52035
9.20000	2.12050	1.51082
9.25000	2.12256	1.50020
9.30000	2.12463	1.48926
9.35000	2.12673	1.47886
9.40000	2.12868	1.46712
9.45000	2.13079	1.45515
9.50000	2.13286	1.44338
9.55000	2.13483	1.43079
9.60000	2.13685	1.41770
9.65000	2.13891	1.40518
9.70000	2.14087	1.39123
9.75000	2.14279	1.37810
9.80000	2.14486	1.36380
9.85000	2.14673	1.34865
9.90000	2.14864	1.33441
9.95000	2.15060	1.31912
10.00000	2.15252	1.30312
10.05000	2.15443	1.28817
10.10000	2.15636	1.27176
10.15000	2.15822	1.25539
10.20000	2.16024	1.23792
10.25000	2.16205	1.22117
10.30000	2.16391	1.20323
10.35000	2.16573	1.18596
10.40000	2.16763	1.16746
10.45000	2.16954	1.14838
10.50000	2.17129	1.13030
10.55000	2.17310	1.11082
10.60000	2.17500	1.09235
10.65000	2.17681	1.07340
10.70000	2.17863	1.05467
10.75000	2.18039	1.03436
10.80000	2.18224	1.01534
10.85000	2.18391	0.99594
10.90000	2.18579	0.97501
10.95000	2.18753	0.95369
11.00000	2.18925	0.93138
11.05000	2.19101	0.90816
11.10000	2.19266	0.88543
11.15000	2.19451	0.86203
11.20000	2.19612	0.83829
11.25000	2.19785	0.81284
11.30000	2.19948	0.78873
11.35000	2.20116	0.76360
11.40000	2.20276	0.73867
11.45000	2.20443	0.71168
11.50000	2.20609	0.68364
11.55000	2.20772	0.65759
11.60000	2.20937	0.62947
11.65000	2.21094	0.60192
11.70000	2.21249	0.57328
11.75000	2.21408	0.54505
11.80000	2.21572	0.51601
11.85000	2.21729	0.48685
11.90000	2.21888	0.45720
11.95000	2.22041	0.42823
12.00000	2.22196	0.39982
12.05000	2.22353	0.37163
12.10000	2.22513	0.34303
12.15000	2.22675	0.31350
12.20000	2.22825	0.28379
12.25000	2.22972	0.25458
12.30000	2.23132	0.22386
12.35000	2.23280	0.19331
12.40000	2.23428	0.16273
12.45000	2.23587	0.13428
12.50000	2.23752	0.10607
12.55000	2.23894	0.08031
12.60000	2.24055	0.05900
12.65000	2.24219	0.04090
12.70000	2.24390	0.02961
12.75000	2.24573	0.02374
12.80000	2.24756	0.02142
12.85000	2.24939	0.01869
12.90000	2.25130	0.01769
12.95000	2.25314	0.01601
13.00000	2.25500	0.01518
13.05000	2.25675	0.01507
13.10000	2.25864	0.01455
13.15000	2.26062	0.01391
13.20000	2.26234	0.01380
13.25000	2.26424	0.01325
13.30000	2.26610	0.01306
13.35000	2.26794	0.01266
13.40000	2.26972	0.01205
13.45000	2.27153	0.01235
13.50000	2.27068	0.01205
13.55000	2.27065	0.01270
13.60000	2.27068	0.01209
13.65000	2.27064	0.01243
13.70000	2.27072	0.01266
13.75000	2.27071	0.01235
13.80000	2.27069	0.01262
13.85000	2.27064	0.01231
13.90000	2.27073	0.01243
13.95000	2.27075	0.01231
14.00000	2.27059	0.01199
14.05000	2.27061	0.01251
14.10000	2.27068	0.01270
14.15000	2.27068	0.01251
14.20000	2.27067	0.01220
14.25000	2.27068	0.01205
14.30000	2.27078	0.01239
14.35000	2.27061	0.01270
14.40000	2.27062	0.01191
14.45000	2.27063	0.01220
14.50000	2.27073	0.01251
14.55000	2.27074	0.01273
14.60000	2.27063	0.01224
14.65000	2.27063	0.01220
14.70000	2.27062	0.01209
14.75000	2.27073	0.01262
14.80000	2.27065	0.01295
14.85000	2.27065	0.01187
14.90000	2.27065	0.01270
14.95000	2.27074	0.01209
15.00000	2.27068	0.01258
15.05000	2.27066	0.01183
15.10000	2.27068	0.01258
15.15000	2.27068	0.01220
15.20000	2.27069	0.01266
15.25000	2.27068	0.01205
15.30000	2.27065	0.01202
15.35000	2.27061	0.01273
15.40000	2.27066	0.01247
15.45000	2.27071	0.01247
15.50000	2.27064	0.01247
15.55000	2.27061	0.01243
15.60000	2.27065	0.01220
15.65000	2.27071	0.01191
15.70000	2.27068	0.01231
15.75000	2.27069	0.01224
15.80000	2.27066	0.01270
15.85000	2.27073	0.01239
15.90000	2.27062	0.01231
15.95000	2.27058	0.01243
16.00000	2.27069	0.01235
16.05000	2.27068	0.01258
16.10000	2.27062	0.01172
16.15000	2.27061	0.01266
16.20000	2.27061	0.01228
16.25000	2.27058	0.01231
16.30000	2.27059	0.01243
16.35000	2.27066	0.01262
16.40000	2.27065	0.01280
16.45000	2.27064	0.01266
16.50000	2.27076	0.01262
16.55000	2.27059	0.01224
16.60000	2.27066	0.01231
16.65000	2.27068	0.01239
16.70000	2.27064	0.01199
16.75000	2.27064	0.01216
16.80000	2.27059	0.01287
16.85000	2.27065	0.01258
16.90000	2.27067	0.01224
16.95000	2.27065	0.01216
17.00000	2.27067	0.01224
17.05000	2.27074	0.01280
17.10000	2.27066	0.01247
17.15000	2.27061	0.01243
17.20000	2.27073	0.01258
17.25000	2.27063	0.01231
17.30000	2.27062	0.01216
17.35000	2.27061	0.01212
17.40000	2.27069	0.01224
17.45000	2.27063	0.01287
17.50000	2.27064	0.01266
17.55000	2.27071	0.01231
17.60000	2.27069	0.01251
17.65000	2.27064	0.01239
17.70000	2.27070	0.01216
17.75000	2.27071	0.01251
17.80000	2.27067	0.01220
17.85000	2.27063	0.01247
17.90000	2.27067	0.01258
17.95000	2.27068	0.01243
18.00000	2.27059	0.01235
18.05000	2.27062	0.01251
18.10000	2.27070	0.01251
18.15000	2.27073	0.01266
18.20000	2.27060	0.01216
18.25000	2.27061	0.01199
18.30000	2.27071	0.01254
18.35000	2.27067	0.01183
18.40000	2.27058	0.01228
18.45000	2.27066	0.01251
18.50000	2.27069	0.01224
18.55000	2.27068	0.01270
18.60000	2.27070	0.01212
18.65000	2.27070	0.01228
18.70000	2.27062	0.01216
18.75000	2.27058	0.01280
18.80000	2.27063	0.01270
18.85000	2.27064	0.01212
18.90000	2.27065	0.01258
18.95000	2.27065	0.01220
19.00000	2.27068	0.01216
19.05000	2.27070	0.01231
19.10000	2.27062	0.01239
19.15000	2.27068	0.01212
19.20000	2.27072	0.01258
19.25000	2.27063	0.01212
19.30000	2.27063	0.01239
19.35000	2.27068	0.01216
19.40000	2.27068	0.01262
19.45000	2.27070	0.01212
19.50000	2.27064	0.01258
19.55000	2.27069	0.01220
19.60000	2.27066	0.01262
19.65000	2.27067	0.01205
19.70000	2.27063	0.01247
19.75000	2.27063	0.01228
19.80000	2.27074	0.01231
19.85000	2.27069	0.01247
19.90000	2.27058	0.01258
19.95000	2.27063	0.01224
20.00000	2.27071	0.01247
20.05000	2.27069	0.01266
20.10000	2.27061	0.01224
20.15000	2.27064	0.01258
20.20000	2.27068	0.01262
20.25000	2.27061	0.01209
20.30000	2.27070	0.01183
20.35000	2.27069	0.01205
20.40000	2.27074	0.01209
20.45000	2.27069	0.01276
20.50000	2.27070	0.01247
20.55000	2.27067	0.01258
20.60000	2.27071	0.01247
20.65000	2.27062	0.01212
20.70000	2.27071	0.01231
20.75000	2.27068	0.01202
20.80000	2.27066	0.01220
20.85000	2.27061	0.01251
20.90000	2.27068	0.01243
20.95000	2.27063	0.01202
21.00000	2.27068	0.01243
21.05000	2.27068	0.01239
21.10000	2.27066	0.01239
21.15000	2.27063	0.01199
21.20000	2.27063	0.01276
21.25000	2.27067	0.01270
21.30000	2.27076	0.01205
21.35000	2.27063	0.01239
21.40000	2.27059	0.01266
21.45000	2.27066	0.01235
21.50000	2.27064	0.01254
21.55000	2.27063	0.01205
21.60000	2.27069	0.01202
21.65000	2.27063	0.01220
21.70000	2.27067	0.01220
21.75000	2.27063	0.01239
21.80000	2.27067	0.01220
21.85000	2.27063	0.01231
21.90000	2.27076	0.01199
21.95000	2.27071	0.01247
22.00000	2.27064	0.01239
22.05000	2.27063	0.01224
22.10000	2.27076	0.01220
22.15000	2.27067	0.01273
22.20000	2.27061	0.01216
22.25000	2.27065	0.01247
22.30000	2.27071	0.01247
22.35000	2.27066	0.01228
22.40000	2.27060	0.01231
22.45000	2.27072	0.01266
22.50000	2.27078	0.01224
22.55000	2.27066	0.01280
22.60000	2.27066	0.01239
22.65000	2.27069	0.01205
22.70000	2.27064	0.01235
22.75000	2.27063	0.01212
22.80000	2.27071	0.01243
22.85000	2.27065	0.01224
22.90000	2.27063	0.01247
22.95000	2.27071	0.01251
23.00000	2.27068	0.01228
23.05000	2.27062	0.01216
23.10000	2.27064	0.01231
23.15000	2.27061	0.01251
23.20000	2.27068	0.01270
23.25000	2.27064	0.01187
23.30000	2.27065	0.01231
23.35000	2.27069	0.01220
23.40000	2.27070	0.01216
23.45000	2.27062	0.01235
23.50000	2.27064	0.01258
23.55000	2.27062	0.01235
23.60000	2.27065	0.01235
23.65000	2.27061	0.01216
23.70000	2.27068	0.01235
23.75000	2.27058	0.01205
23.80000	2.27063	0.01228
23.85000	2.27063	0.01231
23.90000	2.27073	0.01209
23.95000	2.27060	0.01266
24.00000	2.27068	0.01270
24.05000	2.27068	0.01254
24.10000	2.27063	0.01228
24.15000	2.27061	0.01291
24.20000	2.27067	0.01243
24.25000	2.27069	0.01247
24.30000	2.27067	0.01195
24.35000	2.27058	0.01228
24.40000	2.27067	0.01220
24.45000	2.27066	0.01231
24.50000	2.27060	0.01216
24.55000	2.27070	0.01270
24.60000	2.27065	0.01231
24.65000	2.27073	0.01247
24.70000	2.27067	0.01199
24.75000	2.27063	0.01220
24.80000	2.27067	0.01209
24.85000	2.27063	0.01228
24.90000	2.27066	0.01270
24.95000	2.27070	0.01199
25.00000	2.27067	0.01266
25.05000	2.27066	0.01239
25.10000	2.27076	0.01239
25.15000	2.27058	0.01224
25.20000	2.27063	0.01224
25.25000	2.27067	0.01262
25.30000	2.27060	0.01231
25.35000	2.27068	0.01231
25.40000	2.27059	0.01243
25.45000	2.27076	0.01224
25.50000	2.27064	0.01295
25.55000	2.27058	0.01220
25.60000	2.27071	0.01220
25.65000	2.27066	0.01235
25.70000	2.27063	0.01235
25.75000	2.27060	0.01216
25.80000	2.27068	0.01212
25.85000	2.27066	0.01276
25.90000	2.27069	0.01251
25.95000	2.27073	0.01216
26.00000	2.27070	0.01212
26.05000	2.27061	0.01235
26.10000	2.27065	0.01228
26.15000	2.27071	0.01262
26.20000	2.27073	0.01228
26.25000	2.27061	0.01224
26.30000	2.27063	0.01220
26.35000	2.27062	0.01247
26.40000	2.27064	0.01228
26.45000	2.27061	0.01212
26.50000	2.27061	0.01220
26.55000	2.27064	0.01243
26.60000	2.27068	0.01235
26.65000	2.27065	0.01228
26.70000	2.27067	0.01270
26.75000	2.27063	0.01251
26.80000	2.27069	0.01254
26.85000	2.27067	0.01270
26.90000	2.27066	0.01247
26.95000	2.27071	0.01247
27.00000	2.27063	0.01220
27.05000	2.27067	0.01247
27.10000	2.27066	0.01220
27.15000	2.27066	0.01209
27.20000	2.27070	0.01251
27.25000	2.27068	0.01199
27.30000	2.27065	0.01235
27.35000	2.27070	0.01247
27.40000	2.27066	0.01247
27.45000	2.27056	0.01224
27.50000	2.27066	0.01262
27.55000	2.27068	0.01224
27.60000	2.27070	0.01258
27.65000	2.27066	0.01199
27.70000	2.27070	0.01220
27.75000	2.27070	0.01220
27.80000	2.27063	0.01247
27.85000	2.27072	0.01254
27.90000	2.27063	0.01199
27.95000	2.27072	0.01239
28.00000	2.27068	0.01258
28.05000	2.27072	0.01199
28.10000	2.27061	0.01216
28.15000	2.27068	0.01235
28.20000	2.27070	0.01251
28.25000	2.27069	0.01258
28.30000	2.27066	0.01209
28.35000	2.27057	0.01195
28.40000	2.27067	0.01247
28.45000	2.27069	0.01243
28.50000	2.27069	0.01199
28.55000	2.27064	0.01239
28.60000	2.27070	0.01270
28.65000	2.27067	0.01220
28.70000	2.27061	0.01220
28.75000	2.27063	0.01228
28.80000	2.27072	0.01228
28.85000	2.27066	0.01228
28.90000	2.27072	0.01199
28.95000	2.27073	0.01205
29.00000	2.27063	0.01247
29.05000	2.27066	0.01224
29.10000	2.27073	0.01216
29.15000	2.27068	0.01212
29.20000	2.27068	0.01220
29.25000	2.27065	0.01235
29.30000	2.27066	0.01243
29.35000	2.27067	0.01187
29.40000	2.27067	0.01209
29.45000	2.27063	0.01231
29.50000	2.27071	0.01287
29.55000	2.27066	0.01209
29.60000	2.27068	0.01235
29.65000	2.27066	0.01243
29.70000	2.27065	0.01212
29.75000	2.27069	0.01209
29.80000	2.27063	0.01202
29.85000	2.27067	0.01183
29.90000	2.27066	0.01228
29.95000	2.27074	0.01205
30.00000	2.27066	0.01251
