Current (mA)	Voltage (V)	Power (mW)
0.00000	0.10200	0.00230
0.05000	0.66653	0.00197
0.10000	1.45386	0.00181
0.15000	1.48404	0.00197
0.20000	1.50833	0.00237
0.25000	1.52796	0.00237
0.30000	1.54570	0.00264
0.35000	1.56156	0.00260
0.40000	1.57547	0.00335
0.45000	1.58876	0.00375
0.50000	1.60054	0.00562
0.55000	1.61119	0.01541
0.60000	1.61989	0.03858
0.65000	1.62838	0.06457
0.70000	1.63662	0.09152
0.75000	1.64445	0.11683
0.80000	1.65237	0.14408
0.85000	1.65996	0.16995
0.90000	1.66759	0.19672
0.95000	1.67484	0.22229
1.00000	1.68219	0.24886
1.05000	1.68949	0.27485
1.10000	1.69639	0.30080
1.15000	1.70339	0.32588
1.20000	1.71007	0.35141
1.25000	1.71693	0.37769
1.30000	1.72321	0.40211
1.35000	1.72985	0.42812
1.40000	1.73617	0.45395
1.45000	1.74244	0.47840
1.50000	1.74866	0.50449
1.55000	1.75463	0.52868
1.60000	1.76075	0.55417
1.65000	1.76664	0.58075
1.70000	1.77267	0.60640
1.75000	1.77854	0.63325
1.80000	1.78432	0.65978
1.85000	1.79013	0.68715
1.90000	1.79571	0.71392
1.95000	1.80141	0.74207
2.00000	1.80690	0.76767
2.05000	1.81246	0.79594
2.10000	1.81810	0.82278
2.15000	1.82341	0.84883
2.20000	1.82896	0.87664
2.25000	1.83409	0.90236
2.30000	1.83950	0.93014
2.35000	1.84458	0.95628
2.40000	1.85000	0.98207
2.45000	1.85511	1.01033
2.50000	1.86012	1.03563
2.55000	1.86520	1.06256
2.60000	1.87018	1.08876
2.65000	1.87518	1.11425
2.70000	1.88014	1.14151
2.75000	1.88498	1.16757
2.80000	1.88990	1.19254
2.85000	1.89454	1.21908
2.90000	1.89944	1.24535
2.95000	1.90409	1.26977
3.00000	1.90884	1.29766
3.05000	1.91360	1.32211
3.10000	1.91804	1.34670
3.15000	1.92264	1.37292
3.20000	1.92712	1.39635
3.25000	1.93169	1.42371
3.30000	1.93612	1.44726
3.35000	1.94069	1.47281
3.40000	1.94512	1.49957
3.45000	1.94945	1.52267
3.50000	1.95399	1.54895
3.55000	1.95831	1.57422
3.60000	1.96259	1.59800
3.65000	1.96690	1.62443
3.70000	1.97114	1.64832
3.75000	1.97551	1.67332
3.80000	1.97961	1.69827
3.85000	1.98387	1.72192
3.90000	1.98796	1.74652
3.95000	1.99221	1.77224
4.00000	1.99620	1.79471
4.05000	2.00036	1.81983
4.10000	2.00449	1.84409
4.15000	2.00845	1.86682
4.20000	2.01257	1.89239
4.25000	2.01647	1.91594
4.30000	2.02054	1.93935
4.35000	2.02440	1.96331
4.40000	2.02848	1.98648
4.45000	2.03238	2.01053
4.50000	2.03629	2.03348
4.55000	2.04020	2.05625
4.60000	2.04404	2.08043
4.65000	2.04786	2.10316
4.70000	2.05167	2.12503
4.75000	2.05549	2.14914
4.80000	2.05941	2.17180
4.85000	2.06301	2.19434
4.90000	2.06686	2.21808
4.95000	2.07055	2.23816
5.00000	2.07423	2.26279
5.05000	2.07798	2.28455
5.10000	2.08164	2.30653
5.15000	2.08539	2.32937
5.20000	2.08889	2.35037
5.25000	2.09263	2.37262
5.30000	2.09622	2.39527
5.35000	2.09976	2.41542
5.40000	2.10341	2.43842
5.45000	2.10695	2.45924
5.50000	2.11056	2.47999
5.55000	2.11399	2.50241
5.60000	2.11766	2.52290
5.65000	2.12112	2.54410
5.70000	2.12461	2.56574
5.75000	2.12810	2.58537
5.80000	2.13149	2.60668
5.85000	2.13497	2.62728
5.90000	2.13831	2.64691
5.95000	2.14178	2.66858
6.00000	2.14518	2.68697
6.05000	2.14856	2.70776
6.10000	2.15199	2.72806
6.15000	2.15537	2.74705
6.20000	2.15873	2.76747
6.25000	2.16201	2.78676
6.30000	2.16541	2.80642
6.35000	2.16872	2.82619
6.40000	2.17217	2.84544
6.45000	2.17546	2.86508
6.50000	2.17887	2.88477
6.55000	2.18214	2.90376
6.60000	2.18548	2.92276
6.65000	2.18879	2.94238
6.70000	2.19194	2.96048
6.75000	2.19535	2.97988
6.80000	2.19863	2.99887
6.85000	2.20178	3.01681
6.90000	2.20508	3.03666
6.95000	2.20823	3.05390
7.00000	2.21147	3.07229
7.05000	2.21465	3.09019
7.10000	2.21785	3.10758
7.15000	2.22106	3.12601
7.20000	2.22415	3.14350
7.25000	2.22738	3.16085
7.30000	2.23045	3.17786
7.35000	2.23363	3.19550
7.40000	2.23660	3.21158
7.45000	2.23978	3.22866
7.50000	2.24290	3.24500
7.55000	2.24592	3.26246
7.60000	2.24905	3.27880
7.65000	2.25209	3.29408
7.70000	2.25513	3.31080
7.75000	2.25820	3.32817
7.80000	2.26116	3.34456
7.85000	2.26412	3.35951
7.90000	2.26705	3.37514
7.95000	2.27008	3.39169
8.00000	2.27297	3.40608
8.05000	2.27599	3.42126
8.10000	2.27898	3.43625
8.15000	2.28184	3.45087
8.20000	2.28486	3.46589
8.25000	2.28774	3.47958
8.30000	2.29062	3.49357
8.35000	2.29343	3.50810
8.40000	2.29640	3.52167
8.45000	2.29926	3.53532
8.50000	2.30204	3.54889
8.55000	2.30490	3.56231
8.60000	2.30767	3.57521
8.65000	2.31056	3.58751
8.70000	2.31336	3.59932
8.75000	2.31623	3.61087
8.80000	2.31908	3.62254
8.85000	2.32188	3.63435
8.90000	2.32466	3.64613
8.95000	2.32735	3.65726
9.00000	2.33013	3.66882
9.05000	2.33274	3.67995
9.10000	2.33553	3.69095
9.15000	2.33829	3.70145
9.20000	2.34091	3.71226
9.25000	2.34362	3.72335
9.30000	2.34637	3.73368
9.35000	2.34899	3.74299
9.40000	2.35157	3.75256
9.45000	2.35421	3.76250
9.50000	2.35692	3.77107
9.55000	2.35942	3.78015
9.60000	2.36216	3.78953
9.65000	2.36461	3.79821
9.70000	2.36724	3.80754
9.75000	2.36982	3.81458
9.80000	2.37241	3.82355
9.85000	2.37500	3.83293
9.90000	2.37751	3.83969
9.95000	2.38008	3.84908
10.00000	2.38257	3.85648
10.05000	2.38512	3.86366
10.10000	2.38767	3.87155
10.15000	2.39025	3.87768
10.20000	2.39274	3.88455
10.25000	2.39520	3.89259
10.30000	2.39769	3.89850
10.35000	2.40012	3.90474
10.40000	2.40261	3.91023
10.45000	2.40518	3.91611
10.50000	2.40751	3.92261
10.55000	2.41000	3.92766
10.60000	2.41234	3.93200
10.65000	2.41480	3.93741
10.70000	2.41714	3.94157
10.75000	2.41964	3.94620
10.80000	2.42202	3.95013
10.85000	2.42435	3.95386
10.90000	2.42676	3.95809
10.95000	2.42908	3.96100
11.00000	2.43144	3.96388
11.05000	2.43370	3.96672
11.10000	2.43611	3.96949
11.15000	2.43849	3.97158
11.20000	2.44069	3.97365
11.25000	2.44298	3.97503
11.30000	2.44535	3.97726
11.35000	2.44762	3.97820
11.40000	2.44980	3.97872
11.45000	2.45215	3.98018
11.50000	2.45445	3.98085
11.55000	2.45666	3.98119
11.60000	2.45892	3.98239
11.65000	2.46118	3.98131
11.70000	2.46342	3.98116
11.75000	2.46553	3.98060
11.80000	2.46778	3.97921
11.85000	2.47006	3.97831
11.90000	2.47213	3.97712
11.95000	2.47434	3.97618
12.00000	2.47651	3.97555
12.05000	2.47881	3.97424
12.10000	2.48087	3.97181
12.15000	2.48308	3.96991
12.20000	2.48531	3.96870
12.25000	2.48740	3.96635
12.30000	2.48960	3.96340
12.35000	2.49170	3.96056
12.40000	2.49389	3.95776
12.45000	2.49606	3.95442
12.50000	2.49818	3.95058
12.55000	2.50033	3.94755
12.60000	2.50237	3.94257
12.65000	2.50447	3.93914
12.70000	2.50654	3.93457
12.75000	2.50870	3.91835
12.80000	2.51042	3.91305
12.85000	2.51241	3.90643
12.90000	2.51450	3.89988
12.95000	2.51651	3.89252
13.00000	2.51850	3.88549
13.05000	2.52046	3.87827
13.10000	2.52256	3.87009
13.15000	2.52453	3.86104
13.20000	2.52653	3.85341
13.25000	2.52852	3.84441
13.30000	2.53045	3.83581
13.35000	2.53244	3.82541
13.40000	2.53438	3.81618
13.45000	2.53639	3.80631
13.50000	2.53846	3.79562
13.55000	2.54036	3.78460
13.60000	2.54224	3.77424
13.65000	2.54411	3.76343
13.70000	2.54614	3.75103
13.75000	2.54797	3.73959
13.80000	2.54991	3.72761
13.85000	2.55183	3.71554
13.90000	2.55372	3.70291
13.95000	2.55561	3.68993
14.00000	2.55742	3.67667
14.05000	2.55931	3.66310
14.10000	2.56114	3.64934
14.15000	2.56299	3.63517
14.20000	2.56494	3.62007
14.25000	2.56675	3.60634
14.30000	2.56855	3.58979
14.35000	2.57037	3.57457
14.40000	2.57228	3.55824
14.45000	2.57406	3.54216
14.50000	2.57588	3.52612
14.55000	2.57776	3.50877
14.60000	2.57941	3.49211
14.65000	2.58122	3.47480
14.70000	2.58307	3.45745
14.75000	2.58485	3.43887
14.80000	2.58657	3.42145
14.85000	2.58835	3.40253
14.90000	2.59013	3.38388
14.95000	2.59187	3.36541
15.00000	2.59370	3.34519
15.05000	2.59531	3.32519
15.10000	2.59709	3.30429
15.15000	2.59873	3.28399
15.20000	2.60062	3.26287
15.25000	2.60221	3.24051
15.30000	2.60392	3.21955
15.35000	2.60561	3.19678
15.40000	2.60728	3.17457
15.45000	2.60893	3.15127
15.50000	2.61069	3.12799
15.55000	2.61226	3.10448
15.60000	2.61395	3.08033
15.65000	2.61567	3.05555
15.70000	2.61727	3.03075
15.75000	2.61886	3.00635
15.80000	2.62052	2.98032
15.85000	2.62218	2.95427
15.90000	2.62368	2.92840
15.95000	2.62533	2.90107
16.00000	2.62697	2.87439
16.05000	2.62864	2.84667
16.10000	2.63005	2.81943
16.15000	2.63172	2.79031
16.20000	2.63333	2.76160
16.25000	2.63482	2.73315
16.30000	2.63633	2.70234
16.35000	2.63793	2.67292
16.40000	2.63943	2.64324
16.45000	2.64100	2.61292
16.50000	2.64254	2.58119
16.55000	2.64400	2.55042
16.60000	2.64553	2.51875
16.65000	2.64699	2.48589
16.70000	2.64859	2.45289
16.75000	2.65001	2.41807
16.80000	2.65150	2.38544
16.85000	2.65295	2.35075
16.90000	2.65451	2.31542
16.95000	2.65587	2.28181
17.00000	2.65734	2.24547
17.05000	2.65876	2.21045
17.10000	2.66027	2.17393
17.15000	2.66157	2.13796
17.20000	2.66305	2.10065
17.25000	2.66451	2.06297
17.30000	2.66589	2.02573
17.35000	2.66726	1.98719
17.40000	2.66857	1.94888
17.45000	2.67009	1.91026
17.50000	2.67135	1.87168
17.55000	2.67280	1.83067
17.60000	2.67419	1.79056
17.65000	2.67553	1.75112
17.70000	2.67688	1.70952
17.75000	2.67822	1.66892
17.80000	2.67959	1.62660
17.85000	2.68097	1.58671
17.90000	2.68226	1.54356
17.95000	2.68367	1.50110
18.00000	2.68497	1.45968
18.05000	2.68633	1.41732
18.10000	2.68763	1.37605
18.15000	2.68899	1.33309
18.20000	2.69026	1.29036
18.25000	2.69166	1.24936
18.30000	2.69299	1.20621
18.35000	2.69427	1.16517
18.40000	2.69566	1.12226
18.45000	2.69693	1.08012
18.50000	2.69835	1.03736
18.55000	2.69967	0.99478
18.60000	2.70096	0.95186
18.65000	2.70226	0.90808
18.70000	2.70354	0.86614
18.75000	2.70496	0.82211
18.80000	2.70622	0.77878
18.85000	2.70757	0.73466
18.90000	2.70891	0.69037
18.95000	2.71023	0.64849
19.00000	2.71161	0.60521
19.05000	2.71288	0.56311
19.10000	2.71422	0.52012
19.15000	2.71556	0.47829
19.20000	2.71695	0.43533
19.25000	2.71821	0.39324
19.30000	2.71955	0.35324
19.35000	2.72100	0.31291
19.40000	2.72232	0.27473
19.45000	2.72381	0.23859
19.50000	2.72532	0.20644
19.55000	2.72684	0.17448
19.60000	2.72844	0.14382
19.65000	2.72988	0.11406
19.70000	2.73151	0.08371
19.75000	2.73311	0.05720
19.80000	2.73496	0.04135
19.85000	2.73684	0.03407
19.90000	2.73893	0.03040
19.95000	2.74104	0.02816
20.00000	2.74307	0.02639
20.05000	2.74525	0.02501
20.10000	2.74724	0.02363
20.15000	2.74951	0.02315
20.20000	2.75157	0.02255
20.25000	2.75367	0.02232
20.30000	2.75582	0.02135
20.35000	2.75787	0.02098
20.40000	2.76002	0.02019
20.45000	2.76211	0.01992
20.50000	2.76423	0.01904
20.55000	2.76633	0.01929
20.60000	2.76856	0.01892
20.65000	2.77063	0.01900
20.70000	2.77277	0.01798
20.75000	2.77499	0.01802
20.80000	2.77712	0.01787
20.85000	2.77931	0.01810
20.90000	2.78147	0.01746
20.95000	2.78352	0.01765
21.00000	2.78574	0.01720
21.05000	2.78785	0.01705
21.10000	2.79016	0.01653
21.15000	2.79221	0.01634
21.20000	2.79449	0.01679
21.25000	2.79658	0.01672
21.30000	2.79872	0.01641
21.35000	2.80096	0.01608
21.40000	2.80231	0.01637
21.45000	2.80118	0.01597
21.50000	2.80121	0.01612
21.55000	2.80110	0.01597
21.60000	2.80110	0.01637
21.65000	2.80111	0.01593
21.70000	2.80110	0.01616
21.75000	2.80106	0.01560
21.80000	2.80110	0.01585
21.85000	2.80112	0.01631
21.90000	2.80114	0.01637
21.95000	2.80113	0.01608
22.00000	2.80111	0.01570
22.05000	2.80118	0.01604
22.10000	2.80111	0.01589
22.15000	2.80108	0.01570
22.20000	2.80111	0.01604
22.25000	2.80110	0.01608
22.30000	2.80116	0.01616
22.35000	2.80115	0.01560
22.40000	2.80111	0.01585
22.45000	2.80117	0.01616
22.50000	2.80112	0.01574
22.55000	2.80122	0.01612
22.60000	2.80115	0.01597
22.65000	2.80107	0.01623
22.70000	2.80121	0.01634
22.75000	2.80120	0.01597
22.80000	2.80105	0.01566
22.85000	2.80108	0.01631
22.90000	2.80118	0.01627
22.95000	2.80111	0.01593
23.00000	2.80110	0.01556
23.05000	2.80118	0.01585
23.10000	2.80111	0.01608
23.15000	2.80105	0.01570
23.20000	2.80119	0.01623
23.25000	2.80112	0.01593
23.30000	2.80107	0.01582
23.35000	2.80117	0.01574
23.40000	2.80110	0.01593
23.45000	2.80111	0.01597
23.50000	2.80119	0.01637
23.55000	2.80113	0.01627
23.60000	2.80123	0.01604
23.65000	2.80121	0.01582
23.70000	2.80110	0.01556
23.75000	2.80120	0.01623
23.80000	2.80127	0.01560
23.85000	2.80119	0.01578
23.90000	2.80115	0.01664
23.95000	2.80111	0.01582
24.00000	2.80116	0.01578
24.05000	2.80111	0.01563
24.10000	2.80113	0.01608
24.15000	2.80118	0.01578
24.20000	2.80113	0.01585
24.25000	2.80116	0.01574
24.30000	2.80111	0.01593
24.35000	2.80119	0.01566
24.40000	2.80115	0.01582
24.45000	2.80115	0.01560
24.50000	2.80111	0.01570
24.55000	2.80111	0.01653
24.60000	2.80116	0.01627
24.65000	2.80117	0.01597
24.70000	2.80115	0.01585
24.75000	2.80114	0.01585
24.80000	2.80113	0.01623
24.85000	2.80112	0.01570
24.90000	2.80108	0.01552
24.95000	2.80115	0.01593
25.00000	2.80119	0.01589
25.05000	2.80111	0.01574
25.10000	2.80116	0.01570
25.15000	2.80111	0.01585
25.20000	2.80121	0.01641
25.25000	2.80125	0.01623
25.30000	2.80111	0.01608
25.35000	2.80120	0.01604
25.40000	2.80108	0.01627
25.45000	2.80117	0.01608
25.50000	2.80118	0.01608
25.55000	2.80110	0.01593
25.60000	2.80110	0.01641
25.65000	2.80115	0.01597
25.70000	2.80119	0.01616
25.75000	2.80113	0.01549
25.80000	2.80116	0.01631
25.85000	2.80116	0.01604
25.90000	2.80113	0.01612
25.95000	2.80106	0.01582
26.00000	2.80109	0.01616
26.05000	2.80123	0.01627
26.10000	2.80120	0.01585
26.15000	2.80116	0.01549
26.20000	2.80114	0.01601
26.25000	2.80116	0.01601
26.30000	2.80116	0.01612
26.35000	2.80109	0.01566
26.40000	2.80116	0.01578
26.45000	2.80112	0.01597
26.50000	2.80111	0.01631
26.55000	2.80121	0.01593
26.60000	2.80112	0.01601
26.65000	2.80111	0.01623
26.70000	2.80113	0.01645
26.75000	2.80121	0.01585
26.80000	2.80104	0.01585
26.85000	2.80115	0.01597
26.90000	2.80124	0.01623
26.95000	2.80112	0.01589
27.00000	2.80110	0.01545
27.05000	2.80114	0.01631
27.10000	2.80117	0.01593
27.15000	2.80127	0.01589
27.20000	2.80113	0.01593
27.25000	2.80114	0.01604
27.30000	2.80118	0.01597
27.35000	2.80113	0.01616
27.40000	2.80118	0.01582
27.45000	2.80114	0.01556
27.50000	2.80116	0.01589
27.55000	2.80121	0.01601
27.60000	2.80122	0.01589
27.65000	2.80112	0.01585
27.70000	2.80111	0.01623
27.75000	2.80120	0.01608
27.80000	2.80118	0.01570
27.85000	2.80113	0.01593
27.90000	2.80112	0.01637
27.95000	2.80118	0.01589
28.00000	2.80117	0.01585
28.05000	2.80113	0.01541
28.10000	2.80115	0.01570
28.15000	2.80121	0.01612
28.20000	2.80121	0.01601
28.25000	2.80113	0.01582
28.30000	2.80109	0.01608
28.35000	2.80123	0.01616
28.40000	2.80122	0.01604
28.45000	2.80119	0.01582
28.50000	2.80109	0.01560
28.55000	2.80117	0.01589
28.60000	2.80120	0.01582
28.65000	2.80123	0.01582
28.70000	2.80123	0.01570
28.75000	2.80111	0.01585
28.80000	2.80115	0.01620
28.85000	2.80115	0.01601
28.90000	2.80111	0.01556
28.95000	2.80109	0.01631
29.00000	2.80121	0.01570
29.05000	2.80111	0.01604
29.10000	2.80110	0.01556
29.15000	2.80116	0.01631
29.20000	2.80120	0.01597
29.25000	2.80111	0.01616
29.30000	2.80118	0.01549
29.35000	2.80120	0.01570
29.40000	2.80123	0.01627
29.45000	2.80119	0.01620
29.50000	2.80114	0.01589
29.55000	2.80113	0.01616
29.60000	2.80113	0.01601
29.65000	2.80118	0.01612
29.70000	2.80122	0.01582
29.75000	2.80113	0.01601
29.80000	2.80116	0.01585
29.85000	2.80123	0.01585
29.90000	2.80121	0.01597
29.95000	2.80114	0.01570
30.00000	2.80115	0.01601
