Current (mA)	Voltage (V)	Power (mW)
0.00000	0.10173	0.00271
0.05000	0.74843	0.00170
0.10000	1.43373	0.00218
0.15000	1.46055	0.00204
0.20000	1.48189	0.00226
0.25000	1.49957	0.00222
0.30000	1.51510	0.00237
0.35000	1.52943	0.00264
0.40000	1.54200	0.00304
0.45000	1.55409	0.00289
0.50000	1.56500	0.00406
0.55000	1.57560	0.00458
0.60000	1.58527	0.00544
0.65000	1.59457	0.00873
0.70000	1.60239	0.02280
0.75000	1.60908	0.04655
0.80000	1.61561	0.07230
0.85000	1.62180	0.09735
0.90000	1.62817	0.12453
0.95000	1.63416	0.14954
1.00000	1.64038	0.17519
1.05000	1.64653	0.20150
1.10000	1.65233	0.22577
1.15000	1.65827	0.25239
1.20000	1.66399	0.27679
1.25000	1.66985	0.30247
1.30000	1.67535	0.32688
1.35000	1.68106	0.35212
1.40000	1.68683	0.37739
1.45000	1.69203	0.40203
1.50000	1.69768	0.42733
1.55000	1.70278	0.45286
1.60000	1.70814	0.47896
1.65000	1.71328	0.50539
1.70000	1.71862	0.53227
1.75000	1.72373	0.56012
1.80000	1.72881	0.58718
1.85000	1.73393	0.61496
1.90000	1.73880	0.64177
1.95000	1.74385	0.66936
2.00000	1.74865	0.69642
2.05000	1.75365	0.72383
2.10000	1.75858	0.75193
2.15000	1.76338	0.77784
2.20000	1.76819	0.80573
2.25000	1.77294	0.83253
2.30000	1.77762	0.85908
2.35000	1.78218	0.88547
2.40000	1.78687	0.91324
2.45000	1.79151	0.94016
2.50000	1.79594	0.96674
2.55000	1.80054	0.99336
2.60000	1.80496	1.01945
2.65000	1.80947	1.04651
2.70000	1.81390	1.07385
2.75000	1.81825	1.09953
2.80000	1.82256	1.12663
2.85000	1.82680	1.15231
2.90000	1.83117	1.17882
2.95000	1.83532	1.20479
3.00000	1.83961	1.23074
3.05000	1.84386	1.25788
3.10000	1.84790	1.28322
3.15000	1.85209	1.30887
3.20000	1.85608	1.33467
3.25000	1.86026	1.36084
3.30000	1.86426	1.38626
3.35000	1.86827	1.41239
3.40000	1.87238	1.43762
3.45000	1.87623	1.46357
3.50000	1.88025	1.48951
3.55000	1.88402	1.51415
3.60000	1.88814	1.54013
3.65000	1.89180	1.56469
3.70000	1.89579	1.59086
3.75000	1.89971	1.61621
3.80000	1.90348	1.64088
3.85000	1.90727	1.66618
3.90000	1.91102	1.69071
3.95000	1.91477	1.71669
4.00000	1.91851	1.74113
4.05000	1.92230	1.76630
4.10000	1.92596	1.79209
4.15000	1.92959	1.81628
4.20000	1.93336	1.84137
4.25000	1.93689	1.86551
4.30000	1.94059	1.89041
4.35000	1.94413	1.91490
4.40000	1.94775	1.93995
4.45000	1.95134	1.96417
4.50000	1.95484	1.98884
4.55000	1.95836	2.01337
4.60000	1.96180	2.03636
4.65000	1.96545	2.06122
4.70000	1.96883	2.08558
4.75000	1.97228	2.11063
4.80000	1.97583	2.13610
4.85000	1.97928	2.15942
4.90000	1.98274	2.18399
4.95000	1.98622	2.20835
5.00000	1.98961	2.23273
5.05000	1.99301	2.25636
5.10000	1.99636	2.28171
5.15000	1.99986	2.30544
5.20000	2.00319	2.32952
5.25000	2.00669	2.35400
5.30000	2.00991	2.37644
5.35000	2.01327	2.40233
5.40000	2.01669	2.42556
5.45000	2.01986	2.44934
5.50000	2.02324	2.47285
5.55000	2.02646	2.49573
5.60000	2.02980	2.51992
5.65000	2.03304	2.54320
5.70000	2.03632	2.56616
5.75000	2.03958	2.59075
5.80000	2.04275	2.61315
5.85000	2.04594	2.63595
5.90000	2.04920	2.65939
5.95000	2.05236	2.68179
6.00000	2.05547	2.70488
6.05000	2.05861	2.72843
6.10000	2.06189	2.75139
6.15000	2.06495	2.77404
6.20000	2.06808	2.79648
6.25000	2.07112	2.81909
6.30000	2.07431	2.84174
6.35000	2.07735	2.86320
6.40000	2.08045	2.88686
6.45000	2.08358	2.90911
6.50000	2.08660	2.93086
6.55000	2.08969	2.95322
6.60000	2.09261	2.97558
6.65000	2.09580	2.99756
6.70000	2.09874	3.01929
6.75000	2.10183	3.04085
6.80000	2.10484	3.06313
6.85000	2.10779	3.08474
6.90000	2.11088	3.10691
6.95000	2.11384	3.12720
7.00000	2.11673	3.14952
7.05000	2.11965	3.17016
7.10000	2.12261	3.19210
7.15000	2.12566	3.21371
7.20000	2.12846	3.23345
7.25000	2.13148	3.25525
7.30000	2.13426	3.27584
7.35000	2.13725	3.29606
7.40000	2.14002	3.31610
7.45000	2.14290	3.33763
7.50000	2.14589	3.35760
7.55000	2.14872	3.37794
7.60000	2.15160	3.39808
7.65000	2.15437	3.41794
7.70000	2.15725	3.43831
7.75000	2.16005	3.45820
7.80000	2.16285	3.47801
7.85000	2.16563	3.49720
7.90000	2.16840	3.51674
7.95000	2.17126	3.53588
8.00000	2.17401	3.55469
8.05000	2.17675	3.57409
8.10000	2.17957	3.59382
8.15000	2.18232	3.61196
8.20000	2.18515	3.63068
8.25000	2.18773	3.64912
8.30000	2.19059	3.66773
8.35000	2.19332	3.68560
8.40000	2.19601	3.70448
8.45000	2.19881	3.72179
8.50000	2.20143	3.73963
8.55000	2.20413	3.75805
8.60000	2.20672	3.77483
8.65000	2.20947	3.79305
8.70000	2.21200	3.81020
8.75000	2.21473	3.82796
8.80000	2.21738	3.84549
8.85000	2.22009	3.86201
8.90000	2.22265	3.87981
8.95000	2.22525	3.89656
9.00000	2.22794	3.91278
9.05000	2.23048	3.92983
9.10000	2.23307	3.94680
9.15000	2.23579	3.96344
9.20000	2.23829	3.97989
9.25000	2.24091	3.99618
9.30000	2.24345	4.01144
9.35000	2.24598	4.02789
9.40000	2.24862	4.04329
9.45000	2.25118	4.05928
9.50000	2.25373	4.07569
9.55000	2.25621	4.08945
9.60000	2.25879	4.10579
9.65000	2.26116	4.11907
9.70000	2.26367	4.12677
9.75000	2.26617	4.14134
9.80000	2.26872	4.15562
9.85000	2.27116	4.17076
9.90000	2.27361	4.18404
9.95000	2.27614	4.19798
10.00000	2.27859	4.21245
10.05000	2.28102	4.22598
10.10000	2.28354	4.23921
10.15000	2.28600	4.25234
10.20000	2.28846	4.26572
10.25000	2.29085	4.27835
10.30000	2.29326	4.29182
10.35000	2.29573	4.30434
10.40000	2.29814	4.31775
10.45000	2.30064	4.33054
10.50000	2.30292	4.34232
10.55000	2.30539	4.35532
10.60000	2.30771	4.36747
10.65000	2.31019	4.37989
10.70000	2.31246	4.39219
10.75000	2.31488	4.40325
10.80000	2.31724	4.41599
10.85000	2.31962	4.42714
10.90000	2.32198	4.43862
10.95000	2.32434	4.45020
11.00000	2.32668	4.46160
11.05000	2.32912	4.47271
11.10000	2.33142	4.48411
11.15000	2.33380	4.49481
11.20000	2.33602	4.50546
11.25000	2.33850	4.51690
11.30000	2.34076	4.52665
11.35000	2.34312	4.53765
11.40000	2.34543	4.54732
11.45000	2.34775	4.55765
11.50000	2.35008	4.56755
11.55000	2.35239	4.57723
11.60000	2.35469	4.58594
11.65000	2.35700	4.59563
11.70000	2.35929	4.60494
11.75000	2.36148	4.61414
11.80000	2.36385	4.62224
11.85000	2.36607	4.63118
11.90000	2.36834	4.63990
11.95000	2.37064	4.64740
12.00000	2.37286	4.65537
12.05000	2.37509	4.66401
12.10000	2.37735	4.67122
12.15000	2.37958	4.67955
12.20000	2.38185	4.68692
12.25000	2.38398	4.69357
12.30000	2.38625	4.70150
12.35000	2.38842	4.70841
12.40000	2.39066	4.71466
12.45000	2.39273	4.72075
12.50000	2.39497	4.72796
12.55000	2.39717	4.73365
12.60000	2.39937	4.73963
12.65000	2.40158	4.74486
12.70000	2.40366	4.75100
12.75000	2.40585	4.75675
12.80000	2.40794	4.76119
12.85000	2.41019	4.76595
12.90000	2.41236	4.77155
12.95000	2.41437	4.77555
13.00000	2.41661	4.78004
13.05000	2.41866	4.78355
13.10000	2.42083	4.78778
13.15000	2.42298	4.79163
13.20000	2.42503	4.79492
13.25000	2.42709	4.79768
13.30000	2.42919	4.80105
13.35000	2.43125	4.80464
13.40000	2.43325	4.80688
13.45000	2.43544	4.81043
13.50000	2.43752	4.81178
13.55000	2.43946	4.81384
13.60000	2.44157	4.81586
13.65000	2.44353	4.81724
13.70000	2.44558	4.81870
13.75000	2.44765	4.82041
13.80000	2.44968	4.82071
13.85000	2.45173	4.82213
13.90000	2.45368	4.82177
13.95000	2.45572	4.82240
14.00000	2.45777	4.82277
14.05000	2.45979	4.82229
14.10000	2.46175	4.82244
14.15000	2.46370	4.82161
14.20000	2.46581	4.82112
14.25000	2.46765	4.81977
14.30000	2.46977	4.81885
14.35000	2.47164	4.81772
14.40000	2.47370	4.81626
14.45000	2.47564	4.81432
14.50000	2.47758	4.81208
14.55000	2.47957	4.80931
14.60000	2.48153	4.80695
14.65000	2.48350	4.80403
14.70000	2.48540	4.80157
14.75000	2.48736	4.79787
14.80000	2.48927	4.79466
14.85000	2.49121	4.79021
14.90000	2.49315	4.78580
14.95000	2.49505	4.78194
15.00000	2.49697	4.77731
15.05000	2.49885	4.77271
15.10000	2.50079	4.76762
15.15000	2.50262	4.76190
15.20000	2.50454	4.75656
15.25000	2.50649	4.75050
15.30000	2.50835	4.74441
15.35000	2.51020	4.73881
15.40000	2.51210	4.73174
15.45000	2.51391	4.72490
15.50000	2.51583	4.71746
15.55000	2.51768	4.71047
15.60000	2.51946	4.70198
15.65000	2.52135	4.69451
15.70000	2.52314	4.68610
15.75000	2.52501	4.67836
15.80000	2.52682	4.66860
15.85000	2.52872	4.65952
15.90000	2.53052	4.65040
15.95000	2.53232	4.63970
16.00000	2.53411	4.63021
16.05000	2.53595	4.61978
16.10000	2.53770	4.60909
16.15000	2.53945	4.59798
16.20000	2.54131	4.58654
16.25000	2.54304	4.57485
16.30000	2.54485	4.56362
16.35000	2.54650	4.55189
16.40000	2.54844	4.53959
16.45000	2.55008	4.52729
16.50000	2.55192	4.51421
16.55000	2.55370	4.50123
16.60000	2.55529	4.48826
16.65000	2.55710	4.47357
16.70000	2.55882	4.46068
16.75000	2.56056	4.44594
16.80000	2.56225	4.43181
16.85000	2.56397	4.41641
16.90000	2.56569	4.40060
16.95000	2.56736	4.38534
17.00000	2.56908	4.36868
17.05000	2.57071	4.35256
17.10000	2.57244	4.33641
17.15000	2.57415	4.31929
17.20000	2.57578	4.30123
17.25000	2.57756	4.28422
17.30000	2.57917	4.26631
17.35000	2.58091	4.24800
17.40000	2.58251	4.22957
17.45000	2.58425	4.21061
17.50000	2.58574	4.19110
17.55000	2.58747	4.17055
17.60000	2.58914	4.15072
17.65000	2.59081	4.13039
17.70000	2.59243	4.10945
17.75000	2.59405	4.08855
17.80000	2.59575	4.06669
17.85000	2.59725	4.04594
17.90000	2.59885	4.02284
17.95000	2.60047	4.00004
18.00000	2.60205	3.97816
18.05000	2.60366	3.95488
18.10000	2.60522	3.93098
18.15000	2.60683	3.90710
18.20000	2.60853	3.88220
18.25000	2.61002	3.85802
18.30000	2.61170	3.83416
18.35000	2.61316	3.80856
18.40000	2.61480	3.78272
18.45000	2.61631	3.75618
18.50000	2.61791	3.72859
18.55000	2.61950	3.70093
18.60000	2.62103	3.67416
18.65000	2.62251	3.64575
18.70000	2.62405	3.61778
18.75000	2.62556	3.58874
18.80000	2.62708	3.56014
18.85000	2.62866	3.53094
18.90000	2.63015	3.50021
18.95000	2.63159	3.47080
19.00000	2.63318	3.43940
19.05000	2.63468	3.40927
19.10000	2.63610	3.37708
19.15000	2.63760	3.34500
19.20000	2.63907	3.31247
19.25000	2.64067	3.27999
19.30000	2.64199	3.24717
19.35000	2.64355	3.21337
19.40000	2.64493	3.18018
19.45000	2.64650	3.14538
19.50000	2.64791	3.11129
19.55000	2.64939	3.07484
19.60000	2.65088	3.03864
19.65000	2.65227	3.00372
19.70000	2.65368	2.96653
19.75000	2.65509	2.93057
19.80000	2.65651	2.89229
19.85000	2.65792	2.85468
19.90000	2.65948	2.81636
19.95000	2.66078	2.77707
20.00000	2.66220	2.73841
20.05000	2.66361	2.69912
20.10000	2.66495	2.65983
20.15000	2.66640	2.61913
20.20000	2.66778	2.57879
20.25000	2.66922	2.53722
20.30000	2.67058	2.49583
20.35000	2.67187	2.45441
20.40000	2.67325	2.41135
20.45000	2.67464	2.37030
20.50000	2.67603	2.32597
20.55000	2.67740	2.28373
20.60000	2.67872	2.23816
20.65000	2.68006	2.19315
20.70000	2.68137	2.14929
20.75000	2.68271	2.10335
20.80000	2.68402	2.05890
20.85000	2.68536	2.01172
20.90000	2.68673	1.96488
20.95000	2.68806	1.91931
21.00000	2.68934	1.87239
21.05000	2.69065	1.82547
21.10000	2.69195	1.77781
21.15000	2.69330	1.73075
21.20000	2.69459	1.68282
21.25000	2.69597	1.63314
21.30000	2.69720	1.58569
21.35000	2.69865	1.53642
21.40000	2.69980	1.48865
21.45000	2.70118	1.43785
21.50000	2.70241	1.38925
21.55000	2.70370	1.33860
21.60000	2.70500	1.28731
21.65000	2.70630	1.23769
21.70000	2.70766	1.18771
21.75000	2.70890	1.13915
21.80000	2.71031	1.08955
21.85000	2.71151	1.04241
21.90000	2.71286	0.99467
21.95000	2.71419	0.94737
22.00000	2.71558	0.90259
22.05000	2.71695	0.85601
22.10000	2.71818	0.80992
22.15000	2.71952	0.76304
22.20000	2.72087	0.71811
22.25000	2.72213	0.67066
22.30000	2.72353	0.62319
22.35000	2.72478	0.57680
22.40000	2.72616	0.52988
22.45000	2.72746	0.48288
22.50000	2.72880	0.43432
22.55000	2.73002	0.38741
22.60000	2.73133	0.33930
22.65000	2.73272	0.29074
22.70000	2.73396	0.24379
22.75000	2.73535	0.19807
22.80000	2.73664	0.15668
22.85000	2.73807	0.11874
22.90000	2.73957	0.08386
22.95000	2.74114	0.05960
23.00000	2.74290	0.04793
23.05000	2.74476	0.04199
23.10000	2.74660	0.03821
23.15000	2.74846	0.03537
23.20000	2.75032	0.03320
23.25000	2.75239	0.03226
23.30000	2.75419	0.03040
23.35000	2.75614	0.02913
23.40000	2.75804	0.02860
23.45000	2.75993	0.02741
23.50000	2.76177	0.02693
23.55000	2.76376	0.02606
23.60000	2.76565	0.02558
23.65000	2.76760	0.02561
23.70000	2.76953	0.02497
23.75000	2.77140	0.02422
23.80000	2.77332	0.02397
23.85000	2.77526	0.02315
23.90000	2.77722	0.02288
23.95000	2.77929	0.02236
24.00000	2.78105	0.02244
24.05000	2.78305	0.02240
24.10000	2.78493	0.02202
24.15000	2.78685	0.02157
24.20000	2.78872	0.02117
24.25000	2.79078	0.02090
24.30000	2.79268	0.02109
24.35000	2.79459	0.02109
24.40000	2.79663	0.02027
24.45000	2.79854	0.02034
24.50000	2.80046	0.02011
24.55000	2.80207	0.01989
24.60000	2.80107	0.02000
24.65000	2.80102	0.02023
24.70000	2.80099	0.02053
24.75000	2.80108	0.02019
24.80000	2.80108	0.02038
24.85000	2.80103	0.02011
24.90000	2.80097	0.02011
24.95000	2.80103	0.02031
25.00000	2.80106	0.02027
25.05000	2.80101	0.01992
25.10000	2.80106	0.02031
25.15000	2.80108	0.02042
25.20000	2.80106	0.02023
25.25000	2.80102	0.01996
25.30000	2.80103	0.01996
25.35000	2.80111	0.02011
25.40000	2.80104	0.02060
25.45000	2.80105	0.01996
25.50000	2.80099	0.01992
25.55000	2.80105	0.02023
25.60000	2.80111	0.02011
25.65000	2.80098	0.01979
25.70000	2.80099	0.02031
25.75000	2.80111	0.02015
25.80000	2.80100	0.02023
25.85000	2.80106	0.02011
25.90000	2.80106	0.01979
25.95000	2.80102	0.01982
26.00000	2.80106	0.02004
26.05000	2.80107	0.02060
26.10000	2.80102	0.02000
26.15000	2.80107	0.02027
26.20000	2.80101	0.02023
26.25000	2.80107	0.01992
26.30000	2.80096	0.02008
26.35000	2.80103	0.02004
26.40000	2.80110	0.02004
26.45000	2.80105	0.02038
26.50000	2.80098	0.02000
26.55000	2.80106	0.02019
26.60000	2.80111	0.02046
26.65000	2.80108	0.02027
26.70000	2.80104	0.02011
26.75000	2.80108	0.02034
26.80000	2.80104	0.02015
26.85000	2.80105	0.02034
26.90000	2.80102	0.01992
26.95000	2.80101	0.01992
27.00000	2.80108	0.02027
27.05000	2.80103	0.01996
27.10000	2.80105	0.02011
27.15000	2.80103	0.01975
27.20000	2.80101	0.02019
27.25000	2.80103	0.02019
27.30000	2.80107	0.02000
27.35000	2.80103	0.02015
27.40000	2.80099	0.02053
27.45000	2.80116	0.02008
27.50000	2.80106	0.02031
27.55000	2.80103	0.01975
27.60000	2.80101	0.01963
27.65000	2.80113	0.02023
27.70000	2.80105	0.02015
27.75000	2.80109	0.02008
27.80000	2.80109	0.01975
27.85000	2.80108	0.02000
27.90000	2.80106	0.01986
27.95000	2.80114	0.01967
28.00000	2.80107	0.01989
28.05000	2.80107	0.02057
28.10000	2.80103	0.01986
28.15000	2.80110	0.02011
28.20000	2.80106	0.01967
28.25000	2.80097	0.02004
28.30000	2.80102	0.02031
28.35000	2.80108	0.02015
28.40000	2.80108	0.01996
28.45000	2.80097	0.02000
28.50000	2.80116	0.01992
28.55000	2.80101	0.01992
28.60000	2.80100	0.01979
28.65000	2.80101	0.02023
28.70000	2.80108	0.01975
28.75000	2.80100	0.02027
28.80000	2.80102	0.01982
28.85000	2.80101	0.02000
28.90000	2.80105	0.02004
28.95000	2.80108	0.02008
29.00000	2.80105	0.01975
29.05000	2.80111	0.01986
29.10000	2.80101	0.02019
29.15000	2.80106	0.01986
29.20000	2.80105	0.01959
29.25000	2.80103	0.01971
29.30000	2.80098	0.02015
29.35000	2.80105	0.01992
29.40000	2.80113	0.01996
29.45000	2.80102	0.02004
29.50000	2.80097	0.01996
29.55000	2.80118	0.02004
29.60000	2.80108	0.01992
29.65000	2.80103	0.01952
29.70000	2.80108	0.02046
29.75000	2.80107	0.02019
29.80000	2.80107	0.02023
29.85000	2.80098	0.01986
29.90000	2.80106	0.01986
29.95000	2.80105	0.02011
30.00000	2.80111	0.01989
