Current (mA)	Peak position(s) (nm)
 2.000	846.660	846.865
 3.000	846.842	847.069
 4.000	846.751	847.046	847.273
 5.000	846.978	847.273	847.522
 6.000	847.205	847.499	847.771
 7.000	847.069	847.432	847.748
 8.000	846.910	847.318	847.680	848.019
 9.000	847.160	847.454	847.590	847.951	848.312
10.000	847.432	847.726	847.861	848.244	848.582
12.000	847.499	847.996	848.334	848.447	848.851	849.232
14.000	848.109	848.627	848.986	849.098	849.523	849.902
16.000	848.784	849.098	849.120	849.299	849.701	849.791	850.258	850.658
18.000	848.919	849.523	849.880	850.058	850.480	850.569	851.034	851.453
20.000	849.679	850.280	850.680	850.724	850.857	851.299	851.387	851.872
