Current (mA)	Voltage (V)	Power (mW)
0.00000	0.10984	0.00166
0.05000	0.69400	0.00162
0.10000	1.34729	0.00162
0.15000	1.37454	0.00140
0.20000	1.39515	0.00107
0.25000	1.41146	0.00136
0.30000	1.42572	0.00178
0.35000	1.43817	0.00162
0.40000	1.44909	0.00129
0.45000	1.45949	0.00147
0.50000	1.46879	0.00170
0.55000	1.47754	0.00204
0.60000	1.48564	0.00170
0.65000	1.49345	0.00155
0.70000	1.50090	0.00211
0.75000	1.50773	0.00218
0.80000	1.51450	0.00181
0.85000	1.52075	0.00207
0.90000	1.52689	0.00211
0.95000	1.53279	0.00241
1.00000	1.53861	0.00275
1.05000	1.54419	0.00249
1.10000	1.54943	0.00268
1.15000	1.55476	0.00301
1.20000	1.55973	0.00308
1.25000	1.56474	0.00282
1.30000	1.56946	0.00335
1.35000	1.57432	0.00356
1.40000	1.57898	0.00364
1.45000	1.58347	0.00391
1.50000	1.58789	0.00410
1.55000	1.59220	0.00406
1.60000	1.59646	0.00406
1.65000	1.60063	0.00454
1.70000	1.60478	0.00446
1.75000	1.60889	0.00488
1.80000	1.61288	0.00510
1.85000	1.61676	0.00552
1.90000	1.62050	0.00615
1.95000	1.62445	0.00708
2.00000	1.62798	0.00865
2.05000	1.63173	0.01149
2.10000	1.63517	0.01604
2.15000	1.63837	0.02476
2.20000	1.64157	0.03653
2.25000	1.64447	0.04942
2.30000	1.64758	0.06240
2.35000	1.65047	0.07589
2.40000	1.65341	0.08935
2.45000	1.65644	0.10240
2.50000	1.65932	0.11548
2.55000	1.66232	0.12853
2.60000	1.66518	0.14090
2.65000	1.66815	0.15302
2.70000	1.67110	0.16546
2.75000	1.67389	0.17713
2.80000	1.67687	0.18909
2.85000	1.67968	0.20030
2.90000	1.68257	0.21118
2.95000	1.68544	0.22221
3.00000	1.68831	0.23350
3.05000	1.69117	0.24404
3.10000	1.69397	0.25436
3.15000	1.69686	0.26464
3.20000	1.69960	0.27477
3.25000	1.70245	0.28427
3.30000	1.70521	0.29462
3.35000	1.70800	0.30303
3.40000	1.71084	0.31279
3.45000	1.71355	0.32153
3.50000	1.71629	0.33044
3.55000	1.71902	0.33919
3.60000	1.72192	0.34804
3.65000	1.72460	0.35604
3.70000	1.72721	0.36437
3.75000	1.72997	0.37294
3.80000	1.73262	0.38082
3.85000	1.73537	0.38950
3.90000	1.73790	0.39806
3.95000	1.74069	0.40666
4.00000	1.74320	0.41522
4.05000	1.74578	0.42416
4.10000	1.74846	0.43286
4.15000	1.75095	0.44150
4.20000	1.75350	0.45048
4.25000	1.75608	0.45889
4.30000	1.75864	0.46774
4.35000	1.76118	0.47701
4.40000	1.76379	0.48449
4.45000	1.76623	0.49321
4.50000	1.76878	0.50194
4.55000	1.77123	0.51062
4.60000	1.77371	0.51829
4.65000	1.77621	0.52745
4.70000	1.77870	0.53526
4.75000	1.78113	0.54394
4.80000	1.78367	0.55148
4.85000	1.78611	0.55836
4.90000	1.78864	0.56726
4.95000	1.79094	0.57388
5.00000	1.79338	0.58116
5.05000	1.79574	0.58789
5.10000	1.79820	0.59492
5.15000	1.80077	0.60169
5.20000	1.80303	0.60707
5.25000	1.80542	0.61298
5.30000	1.80788	0.62034
5.35000	1.81029	0.62542
5.40000	1.81260	0.63062
5.45000	1.81502	0.63559
5.50000	1.81730	0.64120
5.55000	1.81960	0.64569
5.60000	1.82197	0.65018
5.65000	1.82424	0.65436
5.70000	1.82669	0.65851
5.75000	1.82900	0.66206
5.80000	1.83132	0.66520
5.85000	1.83360	0.66905
5.90000	1.83587	0.67223
5.95000	1.83825	0.67560
6.00000	1.84051	0.67731
6.05000	1.84277	0.67974
6.10000	1.84508	0.68203
6.15000	1.84739	0.68371
6.20000	1.84961	0.68539
6.25000	1.85177	0.68685
6.30000	1.85404	0.68782
6.35000	1.85632	0.68879
6.40000	1.85857	0.68939
6.45000	1.86078	0.68943
6.50000	1.86293	0.68969
6.55000	1.86522	0.68950
6.60000	1.86743	0.68830
6.65000	1.86960	0.68890
6.70000	1.87173	0.68704
6.75000	1.87394	0.68527
6.80000	1.87620	0.68431
6.85000	1.87831	0.68203
6.90000	1.88050	0.68019
6.95000	1.88260	0.67817
7.00000	1.88478	0.67541
7.05000	1.88681	0.67272
7.10000	1.88897	0.66946
7.15000	1.89108	0.66513
7.20000	1.89320	0.66143
7.25000	1.89538	0.65754
7.30000	1.89738	0.65383
7.35000	1.89956	0.64864
7.40000	1.90166	0.64389
7.45000	1.90366	0.63836
7.50000	1.90574	0.63235
7.55000	1.90781	0.62632
7.60000	1.90987	0.62079
7.65000	1.91186	0.61433
7.70000	1.91402	0.60699
7.75000	1.91608	0.59993
7.80000	1.91804	0.59235
7.85000	1.92005	0.58498
7.90000	1.92195	0.57749
7.95000	1.92404	0.56879
8.00000	1.92597	0.56008
8.05000	1.92808	0.55104
8.10000	1.92999	0.54198
8.15000	1.93197	0.53271
8.20000	1.93390	0.52173
8.25000	1.93582	0.51260
8.30000	1.93778	0.50165
8.35000	1.93970	0.49115
8.40000	1.94175	0.47937
8.45000	1.94359	0.46785
8.50000	1.94556	0.45601
8.55000	1.94746	0.44430
8.60000	1.94936	0.43069
8.65000	1.95124	0.41847
8.70000	1.95313	0.40512
8.75000	1.95498	0.39100
8.80000	1.95698	0.37710
8.85000	1.95871	0.36318
8.90000	1.96070	0.34827
8.95000	1.96246	0.33372
9.00000	1.96432	0.31848
9.05000	1.96612	0.30277
9.10000	1.96799	0.28740
9.15000	1.96982	0.27028
9.20000	1.97158	0.25331
9.25000	1.97341	0.23649
9.30000	1.97528	0.21982
9.35000	1.97706	0.20139
9.40000	1.97882	0.18392
9.45000	1.98055	0.16569
9.50000	1.98240	0.14684
9.55000	1.98422	0.12849
9.60000	1.98590	0.11066
9.65000	1.98761	0.09346
9.70000	1.98938	0.07772
9.75000	1.99120	0.06255
9.80000	1.99289	0.04797
9.85000	1.99471	0.03691
9.90000	1.99640	0.02935
9.95000	1.99818	0.02468
10.00000	1.99990	0.02169
10.05000	2.00171	0.01975
10.10000	2.00335	0.01773
10.15000	2.00517	0.01724
10.20000	2.00684	0.01641
10.25000	2.00856	0.01545
10.30000	2.01035	0.01491
10.35000	2.01204	0.01447
10.40000	2.01383	0.01418
10.45000	2.01567	0.01361
10.50000	2.01726	0.01283
10.55000	2.01900	0.01310
10.60000	2.02074	0.01303
10.65000	2.02245	0.01295
10.70000	2.02413	0.01179
10.75000	2.02587	0.01187
10.80000	2.02768	0.01176
10.85000	2.02938	0.01176
10.90000	2.03110	0.01108
10.95000	2.03269	0.01120
11.00000	2.03453	0.01157
11.05000	2.03614	0.01101
11.10000	2.03791	0.01063
11.15000	2.03961	0.01030
11.20000	2.04127	0.01045
11.25000	2.04298	0.01063
11.30000	2.04467	0.01078
11.35000	2.04636	0.01049
11.40000	2.04804	0.01022
11.45000	2.04977	0.01045
11.50000	2.05145	0.01022
11.55000	2.05312	0.01007
11.60000	2.05486	0.00999
11.65000	2.05645	0.01011
11.70000	2.05819	0.00996
11.75000	2.05981	0.00999
11.80000	2.06155	0.00974
11.85000	2.06321	0.00974
11.90000	2.06486	0.00978
11.95000	2.06655	0.00951
12.00000	2.06822	0.00947
12.05000	2.06984	0.00940
12.10000	2.07158	0.00928
12.15000	2.07177	0.00966
12.20000	2.07110	0.00951
12.25000	2.07113	0.00982
12.30000	2.07124	0.00992
12.35000	2.07114	0.00970
12.40000	2.07115	0.00911
12.45000	2.07112	0.00978
12.50000	2.07125	0.00966
12.55000	2.07125	0.00947
12.60000	2.07113	0.00951
12.65000	2.07121	0.00996
12.70000	2.07123	0.00951
12.75000	2.07120	0.00940
12.80000	2.07118	0.00932
12.85000	2.07119	0.00932
12.90000	2.07118	0.00978
12.95000	2.07112	0.00985
13.00000	2.07123	0.00963
13.05000	2.07118	0.00940
13.10000	2.07115	0.00959
13.15000	2.07123	0.00940
13.20000	2.07119	0.00899
13.25000	2.07115	0.00928
13.30000	2.07113	0.00978
13.35000	2.07119	0.00955
13.40000	2.07125	0.00932
13.45000	2.07120	0.00907
13.50000	2.07121	0.00932
13.55000	2.07121	0.00985
13.60000	2.07123	0.00970
13.65000	2.07113	0.00921
13.70000	2.07111	0.00963
13.75000	2.07125	0.00963
13.80000	2.07115	0.00944
13.85000	2.07117	0.00914
13.90000	2.07119	0.00985
13.95000	2.07125	0.00932
14.00000	2.07109	0.01015
14.05000	2.07118	0.00944
14.10000	2.07122	0.00955
14.15000	2.07112	0.00963
14.20000	2.07113	0.00921
14.25000	2.07114	0.00947
14.30000	2.07116	0.00911
14.35000	2.07113	0.00989
14.40000	2.07115	0.00955
14.45000	2.07120	0.00944
14.50000	2.07114	0.00892
14.55000	2.07115	0.00951
14.60000	2.07121	0.00970
14.65000	2.07119	0.00947
14.70000	2.07110	0.00888
14.75000	2.07115	0.00974
14.80000	2.07121	0.00951
14.85000	2.07118	0.00951
14.90000	2.07119	0.00914
14.95000	2.07110	0.00982
15.00000	2.07116	0.00944
15.05000	2.07122	0.00951
15.10000	2.07114	0.00914
15.15000	2.07116	0.00911
15.20000	2.07116	0.00963
15.25000	2.07122	0.00940
15.30000	2.07108	0.00951
15.35000	2.07114	0.00944
15.40000	2.07108	0.00932
15.45000	2.07111	0.00951
15.50000	2.07123	0.00925
15.55000	2.07121	0.00959
15.60000	2.07110	0.00982
15.65000	2.07120	0.00970
15.70000	2.07110	0.00947
15.75000	2.07110	0.00903
15.80000	2.07125	0.00944
15.85000	2.07118	0.00932
15.90000	2.07117	0.00944
15.95000	2.07121	0.00888
16.00000	2.07114	0.00970
16.05000	2.07119	0.00940
16.10000	2.07118	0.00959
16.15000	2.07118	0.00951
16.20000	2.07115	0.00947
16.25000	2.07122	0.00940
16.30000	2.07122	0.00974
16.35000	2.07119	0.00947
16.40000	2.07117	0.00892
16.45000	2.07110	0.00925
16.50000	2.07117	0.00940
16.55000	2.07111	0.00951
16.60000	2.07118	0.00921
16.65000	2.07118	0.00974
16.70000	2.07118	0.00978
16.75000	2.07114	0.00944
16.80000	2.07114	0.00911
16.85000	2.07127	0.00932
16.90000	2.07118	0.00925
16.95000	2.07114	0.00966
17.00000	2.07114	0.00899
17.05000	2.07115	0.00936
17.10000	2.07113	0.00928
17.15000	2.07118	0.00911
17.20000	2.07120	0.00940
17.25000	2.07115	0.00959
17.30000	2.07121	0.00996
17.35000	2.07114	0.00955
17.40000	2.07118	0.00914
17.45000	2.07118	0.00914
17.50000	2.07120	0.00947
17.55000	2.07120	0.00947
17.60000	2.07112	0.00974
17.65000	2.07120	0.00925
17.70000	2.07112	0.00944
17.75000	2.07115	0.00932
17.80000	2.07115	0.00955
17.85000	2.07115	0.00925
17.90000	2.07113	0.00963
17.95000	2.07120	0.00951
18.00000	2.07119	0.00932
18.05000	2.07104	0.00925
18.10000	2.07109	0.00947
18.15000	2.07120	0.00955
18.20000	2.07119	0.00970
18.25000	2.07118	0.00947
18.30000	2.07118	0.00944
18.35000	2.07119	0.00951
18.40000	2.07117	0.00918
18.45000	2.07117	0.00911
18.50000	2.07118	0.00921
18.55000	2.07112	0.00936
18.60000	2.07114	0.00978
18.65000	2.07113	0.00932
18.70000	2.07106	0.00907
18.75000	2.07121	0.00928
18.80000	2.07112	0.00970
18.85000	2.07116	0.00951
18.90000	2.07108	0.00932
18.95000	2.07110	0.00974
19.00000	2.07112	0.00947
19.05000	2.07119	0.00899
19.10000	2.07121	0.00928
19.15000	2.07106	0.00911
19.20000	2.07124	0.00944
19.25000	2.07118	0.00970
19.30000	2.07113	0.00936
19.35000	2.07121	0.00959
19.40000	2.07108	0.00955
19.45000	2.07116	0.00925
19.50000	2.07119	0.00940
19.55000	2.07118	0.00911
19.60000	2.07111	0.00944
19.65000	2.07113	0.00970
19.70000	2.07115	0.00951
19.75000	2.07113	0.00903
19.80000	2.07109	0.00928
19.85000	2.07118	0.00966
19.90000	2.07122	0.00947
19.95000	2.07123	0.00936
20.00000	2.07120	0.00966
20.05000	2.07127	0.00959
20.10000	2.07118	0.00940
20.15000	2.07116	0.00932
20.20000	2.07120	0.00959
20.25000	2.07122	0.00918
20.30000	2.07112	0.00966
20.35000	2.07114	0.00914
20.40000	2.07113	0.00936
20.45000	2.07119	0.00959
20.50000	2.07120	0.00955
20.55000	2.07118	0.00955
20.60000	2.07116	0.00907
20.65000	2.07110	0.00970
20.70000	2.07112	0.00951
20.75000	2.07118	0.00970
20.80000	2.07112	0.00925
20.85000	2.07111	0.00928
20.90000	2.07120	0.00963
20.95000	2.07118	0.00978
21.00000	2.07108	0.00918
21.05000	2.07106	0.00947
21.10000	2.07125	0.00966
21.15000	2.07125	0.00951
21.20000	2.07111	0.00914
21.25000	2.07111	0.00966
21.30000	2.07118	0.00970
21.35000	2.07110	0.00959
21.40000	2.07118	0.00888
21.45000	2.07109	0.00907
21.50000	2.07113	0.00921
21.55000	2.07115	0.00936
21.60000	2.07113	0.00982
21.65000	2.07113	0.00944
21.70000	2.07117	0.00932
21.75000	2.07114	0.00903
21.80000	2.07111	0.00959
21.85000	2.07120	0.00899
21.90000	2.07119	0.00966
21.95000	2.07118	0.00936
22.00000	2.07118	0.00992
22.05000	2.07115	0.00918
22.10000	2.07113	0.00947
22.15000	2.07116	0.00928
22.20000	2.07109	0.00959
22.25000	2.07113	0.00907
22.30000	2.07120	0.00966
22.35000	2.07125	0.00974
22.40000	2.07121	0.00944
22.45000	2.07118	0.00925
22.50000	2.07110	0.00932
22.55000	2.07117	0.00947
22.60000	2.07117	0.00936
22.65000	2.07119	0.00951
22.70000	2.07121	0.00928
22.75000	2.07111	0.00974
22.80000	2.07112	0.00944
22.85000	2.07114	0.00951
22.90000	2.07112	0.00903
22.95000	2.07121	0.00955
23.00000	2.07120	0.00947
23.05000	2.07113	0.00951
23.10000	2.07108	0.00925
23.15000	2.07115	0.00932
23.20000	2.07114	0.00959
23.25000	2.07112	0.00947
23.30000	2.07116	0.00925
23.35000	2.07120	0.00932
23.40000	2.07113	0.00970
23.45000	2.07123	0.00944
23.50000	2.07115	0.00911
23.55000	2.07120	0.00921
23.60000	2.07111	0.00978
23.65000	2.07118	0.00936
23.70000	2.07113	0.00928
23.75000	2.07125	0.00918
23.80000	2.07115	0.00944
23.85000	2.07115	0.00951
23.90000	2.07118	0.00932
23.95000	2.07110	0.00947
24.00000	2.07106	0.00982
24.05000	2.07116	0.00940
24.10000	2.07118	0.00944
24.15000	2.07115	0.00899
24.20000	2.07115	0.00963
24.25000	2.07113	0.00936
24.30000	2.07116	0.00989
24.35000	2.07111	0.00936
24.40000	2.07113	0.00947
24.45000	2.07116	0.00959
24.50000	2.07110	0.00955
24.55000	2.07115	0.00959
24.60000	2.07113	0.00982
24.65000	2.07120	0.00921
24.70000	2.07115	0.00966
24.75000	2.07122	0.00928
24.80000	2.07116	0.00936
24.85000	2.07122	0.00921
24.90000	2.07117	0.00932
24.95000	2.07115	0.01011
25.00000	2.07110	0.00944
25.05000	2.07110	0.00936
25.10000	2.07118	0.00918
25.15000	2.07114	0.00895
25.20000	2.07110	0.00918
25.25000	2.07120	0.00999
25.30000	2.07116	0.00955
25.35000	2.07122	0.00959
25.40000	2.07108	0.00963
25.45000	2.07108	0.00907
25.50000	2.07120	0.00944
25.55000	2.07118	0.00928
25.60000	2.07117	0.00947
25.65000	2.07114	0.00970
25.70000	2.07115	0.00947
25.75000	2.07113	0.00911
25.80000	2.07125	0.00899
25.85000	2.07115	0.00921
25.90000	2.07109	0.00940
25.95000	2.07119	0.00936
26.00000	2.07120	0.00951
26.05000	2.07118	0.00932
26.10000	2.07105	0.00963
26.15000	2.07118	0.00978
26.20000	2.07115	0.00963
26.25000	2.07107	0.00895
26.30000	2.07120	0.00989
26.35000	2.07119	0.00970
26.40000	2.07117	0.00959
26.45000	2.07120	0.00911
26.50000	2.07113	0.00928
26.55000	2.07120	0.00966
26.60000	2.07125	0.00955
26.65000	2.07116	0.00928
26.70000	2.07115	0.00892
26.75000	2.07121	0.00940
26.80000	2.07115	0.00951
26.85000	2.07118	0.00911
26.90000	2.07113	0.00947
26.95000	2.07111	0.00978
27.00000	2.07121	0.00951
27.05000	2.07113	0.00944
27.10000	2.07111	0.00925
27.15000	2.07110	0.00944
27.20000	2.07113	0.00947
27.25000	2.07119	0.00970
27.30000	2.07107	0.00895
27.35000	2.07114	0.00936
27.40000	2.07114	0.00974
27.45000	2.07115	0.00918
27.50000	2.07118	0.00951
27.55000	2.07120	0.00928
27.60000	2.07108	0.00955
27.65000	2.07124	0.00951
27.70000	2.07115	0.00944
27.75000	2.07123	0.00944
27.80000	2.07119	0.00947
27.85000	2.07113	0.00959
27.90000	2.07121	0.00940
27.95000	2.07123	0.00925
28.00000	2.07112	0.00985
28.05000	2.07120	0.00944
28.10000	2.07118	0.00955
28.15000	2.07118	0.00936
28.20000	2.07112	0.00928
28.25000	2.07118	0.00951
28.30000	2.07118	0.00989
28.35000	2.07111	0.00907
28.40000	2.07114	0.00947
28.45000	2.07123	0.00989
28.50000	2.07110	0.00936
28.55000	2.07115	0.00903
28.60000	2.07118	0.00992
28.65000	2.07122	0.00959
28.70000	2.07113	0.00955
28.75000	2.07114	0.00925
28.80000	2.07115	0.00903
28.85000	2.07120	0.00955
28.90000	2.07117	0.00955
28.95000	2.07117	0.00928
29.00000	2.07114	0.00928
29.05000	2.07110	0.00959
29.10000	2.07115	0.00918
29.15000	2.07116	0.00899
29.20000	2.07118	0.00918
29.25000	2.07120	0.00951
29.30000	2.07123	0.00970
29.35000	2.07120	0.00951
29.40000	2.07120	0.00914
29.45000	2.07109	0.00936
29.50000	2.07125	0.00936
29.55000	2.07119	0.00932
29.60000	2.07118	0.00932
29.65000	2.07110	0.00932
29.70000	2.07118	0.00970
29.75000	2.07115	0.00940
29.80000	2.07113	0.00921
29.85000	2.07118	0.00940
29.90000	2.07113	0.00925
29.95000	2.07117	0.00966
30.00000	2.07122	0.00959
