Current (mA)	Peak position(s) (nm)
 2.000	848.694
 3.000	848.627	848.986
 4.000	848.919	849.299
 5.000	849.232	849.634
 6.000	849.120	849.590	850.013
 7.000	849.478	849.969	850.414
 8.000	849.768	849.835	849.880	850.369
 9.000	850.191	850.258	850.302	850.813
10.000	850.635	850.702	850.746	851.277
12.000	851.652	851.718	852.267
14.000	852.092	852.727	853.381
16.000	853.251	853.946	854.595
18.000	854.530	855.284
