Current (mA)	Peak position(s) (nm)
 2.000	847.023
 3.000	846.796	847.432
 4.000	847.228	847.884
 5.000	847.703	848.379
 6.000	848.199	848.941
 7.000	848.761	849.523
 8.000	848.447	849.344	850.125
 9.000	849.031	849.880	849.946	850.791
10.000	849.657	850.547	850.613	851.476
12.000	850.768	850.968	851.938	851.982
14.000	852.421	853.447	853.490
16.000	854.011	855.112
